File: Datasets/xrd_sample.xy
XRD_sample ‚óè Full Chart
Wavelength = 1.54059
5	117.00
5.2	96.00
5.4	95.00
5.6	105.00
5.8	108.00
6	107.00
6.2	105.00
6.4	125.00
6.6	100.00
6.8	114.00
7	113.00
7.2	105.00
7.4	134.00
7.6	123.00
7.8	99.00
8	109.00
8.2	100.00
8.4	118.00
8.6	100.00
8.8	98.00
9	120.00
9.2	117.00
9.4	123.00
9.6	115.00
9.8	140.00
10	134.00
10.2	134.00
10.4	128.00
10.6	147.00
10.8	136.00
11	124.00
11.2	127.00
11.4	111.00
11.6	123.00
11.8	143.00
12	144.00
12.2	145.00
12.4	170.00
12.6	127.00
12.8	159.00
13	179.00
13.2	161.00
13.4	163.00
13.6	169.00
13.8	171.00
14	186.00
14.2	193.00
14.4	217.00
14.6	166.00
14.8	192.00
15	216.00
15.2	197.00
15.4	241.00
15.6	200.00
15.8	222.00
16	215.00
16.2	246.00
16.4	265.00
16.6	269.00
16.8	292.00
17	259.00
17.2	286.00
17.4	280.00
17.6	295.00
17.8	309.00
18	319.00
18.2	339.00
18.4	355.00
18.6	358.00
18.8	351.00
19	403.00
19.2	424.00
19.4	398.00
19.6	395.00
19.8	446.00
20	420.00
20.2	456.00
20.4	480.00
20.6	472.00
20.8	510.00
21	509.00
21.2	481.00
21.4	505.00
21.6	522.00
21.8	546.00
22	535.00
22.2	542.00
22.4	520.00
22.6	538.00
22.8	534.00
23	534.00
23.2	535.00
23.4	532.00
23.6	486.00
23.8	526.00
24	545.00
24.2	536.00
24.4	488.00
24.6	511.00
24.8	525.00
25	516.00
25.2	529.00
25.4	500.00
25.6	510.00
25.8	483.00
26	518.00
26.2	514.00
26.4	512.00
26.6	564.00
26.8	477.00
27	507.00
27.2	521.00
27.4	508.00
27.6	478.00
27.8	458.00
28	480.00
28.2	464.00
28.4	475.00
28.6	466.00
28.8	465.00
29	471.00
29.2	460.00
29.4	466.00
29.6	418.00
29.8	450.00
30	443.00
30.2	473.00
30.4	449.00
30.6	481.00
30.8	453.00
31	431.00
31.2	404.00
31.4	433.00
31.6	407.00
31.8	389.00
32	396.00
32.2	374.00
32.4	382.00
32.6	373.00
32.8	395.00
33	364.00
33.2	395.00
33.4	360.00
33.6	353.00
33.8	377.00
34	354.00
34.2	367.00
34.4	329.00
34.6	290.00
34.8	347.00
35	300.00
35.2	313.00
35.4	314.00
35.6	271.00
35.8	309.00
36	291.00
36.2	263.00
36.4	295.00
36.6	295.00
36.8	278.00
37	254.00
37.2	257.00
37.4	234.00
37.6	250.00
37.8	256.00
38	221.00
38.2	231.00
38.4	246.00
38.6	255.00
38.8	227.00
39	231.00
39.2	236.00
39.4	242.00
39.6	225.00
39.8	227.00
40	206.00
40.2	228.00
40.4	210.00
40.6	267.00
40.8	244.00
41	224.00
41.2	221.00
41.4	214.00
41.6	218.00
41.8	241.00
42	211.00
42.2	238.00
42.4	247.00
42.6	254.00
42.8	223.00
43	235.00
43.2	238.00
43.4	242.00
43.6	214.00
43.8	219.00
44	248.00
44.2	188.00
44.4	204.00
44.6	211.00
44.8	219.00
45	179.00
45.2	218.00
45.4	210.00
45.6	221.00
45.8	217.00
46	236.00
46.2	227.00
46.4	206.00
46.6	226.00
46.8	224.00
47	205.00
47.2	201.00
47.4	189.00
47.6	188.00
47.8	196.00
48	213.00
48.2	203.00
48.4	203.00
48.6	197.00
48.8	179.00
49	189.00
49.2	192.00
49.4	173.00
49.6	199.00
49.8	186.00
50	188.00
50.2	212.00
50.4	203.00
50.6	181.00
50.8	192.00
51	178.00
51.2	171.00
51.4	202.00
51.6	196.00
51.8	199.00
52	208.00
52.2	203.00
52.4	211.00
52.6	208.00
52.8	207.00
53	171.00
53.2	171.00
53.4	169.00
53.6	179.00
53.8	180.00
54	167.00
54.2	204.00
54.4	182.00
54.6	174.00
54.8	181.00
55	208.00
55.2	183.00
55.4	186.00
55.6	173.00
55.8	182.00
56	201.00
56.2	182.00
56.4	177.00
56.6	194.00
56.8	219.00
57	187.00
57.2	188.00
57.4	205.00
57.6	184.00
57.8	177.00
58	189.00
58.2	168.00
58.4	177.00
58.6	177.00
58.8	192.00
59	195.00
59.2	204.00
59.4	191.00
59.6	186.00
59.8	169.00
60	174.00